   Wavelength  Flux
   3540.500      0.8402635    
   3541.400      0.8336623    
   3542.300      0.8247070    
   3543.200      0.8181286    
   3544.100      0.8218390    
   3545.000      0.8312125    
   3545.900      0.8385115    
   3546.800      0.8426771    
   3547.700      0.8469001    
   3548.600      0.8470014    
   3549.500      0.8476858    
   3550.400      0.8486916    
   3551.300      0.8493988    
   3552.200      0.8521010    
   3553.100      0.8515589    
   3554.000      0.8510309    
   3554.900      0.8551117    
   3555.800      0.8583200    
   3556.700      0.8640074    
   3557.600      0.8688238    
   3558.500      0.8700584    
   3559.400      0.8694263    
   3560.300      0.8700540    
   3561.200      0.8685577    
   3562.100      0.8652343    
   3563.000      0.8626657    
   3563.900      0.8542326    
   3564.800      0.8459470    
   3565.700      0.8411843    
   3566.600      0.8436990    
   3567.500      0.8510795    
   3568.400      0.8531933    
   3569.300      0.8449526    
   3570.200      0.8399113    
   3571.100      0.8390744    
   3572.000      0.8395945    
   3572.900      0.8392790    
   3573.800      0.8473370    
   3574.700      0.8595448    
   3575.600      0.8632216    
   3576.500      0.8615941    
   3577.400      0.8604835    
   3578.300      0.8605400    
   3579.200      0.8537774    
   3580.100      0.8398007    
   3581.000      0.8286195    
   3581.900      0.8272265    
   3582.800      0.8308721    
   3583.700      0.8273413    
   3584.600      0.8226017    
   3585.500      0.8197629    
   3586.400      0.8238412    
   3587.300      0.8416497    
   3588.200      0.8598562    
   3589.100      0.8670287    
   3590.000      0.8631129    
   3590.900      0.8585409    
   3591.800      0.8530192    
   3592.700      0.8458580    
   3593.600      0.8509957    
   3594.500      0.8592339    
   3595.400      0.8565179    
   3596.300      0.8550578    
   3597.200      0.8540334    
   3598.100      0.8532357    
   3599.000      0.8477203    
   3599.900      0.8400220    
   3600.800      0.8371772    
   3601.700      0.8341923    
   3602.600      0.8287864    
   3603.500      0.8336910    
   3604.400      0.8406694    
   3605.300      0.8347767    
   3606.200      0.8323784    
   3607.100      0.8336018    
   3608.000      0.8292030    
   3608.900      0.8234212    
   3609.800      0.8214640    
   3610.700      0.8276595    
   3611.600      0.8298472    
   3612.500      0.8208417    
   3613.400      0.8168294    
   3614.300      0.8327091    
   3615.200      0.8472965    
   3616.100      0.8363745    
   3617.000      0.8200515    
   3617.900      0.8074176    
   3618.800      0.8020555    
   3619.700      0.8066005    
   3620.600      0.8191671    
   3621.500      0.8335162    
   3622.400      0.8380924    
   3623.300      0.8364842    
   3624.200      0.8400912    
   3625.100      0.8512591    
   3626.000      0.8564278    
   3626.900      0.8541684    
   3627.800      0.8532556    
   3628.700      0.8519287    
   3629.600      0.8445401    
   3630.500      0.8325349    
   3631.400      0.8286838    
   3632.300      0.8380308    
   3633.200      0.8491275    
   3634.100      0.8550497    
   3635.000      0.8588344    
   3635.900      0.8569142    
   3636.800      0.8468896    
   3637.700      0.8374352    
   3638.600      0.8367383    
   3639.500      0.8401741    
   3640.400      0.8347599    
   3641.300      0.8266606    
   3642.200      0.8269868    
   3643.100      0.8348402    
   3644.000      0.8399199    
   3644.900      0.8359659    
   3645.800      0.8350161    
   3646.700      0.8366682    
   3647.600      0.8340500    
   3648.500      0.8369982    
   3649.400      0.8428811    
   3650.300      0.8445868    
   3651.200      0.8461677    
   3652.100      0.8532180    
   3653.000      0.8562875    
   3653.900      0.8550028    
   3654.800      0.8557277    
   3655.700      0.8573450    
   3656.600      0.8608587    
   3657.500      0.8619519    
   3658.400      0.8535835    
   3659.300      0.8410763    
   3660.200      0.8362805    
   3661.100      0.8425875    
   3662.000      0.8478478    
   3662.900      0.8445041    
   3663.800      0.8393141    
   3664.700      0.8420502    
   3665.600      0.8455561    
   3666.500      0.8448185    
   3667.400      0.8425794    
   3668.300      0.8469516    
   3669.200      0.8498607    
   3670.100      0.8522552    
   3671.000      0.8556357    
   3671.900      0.8550902    
   3672.800      0.8600440    
   3673.700      0.8618687    
   3674.600      0.8533106    
   3675.500      0.8460336    
   3676.400      0.8370026    
   3677.300      0.8277041    
   3678.200      0.8287570    
   3679.100      0.8363650    
   3680.000      0.8422775    
   3680.900      0.8395976    
   3681.800      0.8328334    
   3682.700      0.8327563    
   3683.600      0.8314431    
   3684.500      0.8184510    
   3685.400      0.8037927    
   3686.300      0.8021027    
   3687.200      0.8181713    
   3688.100      0.8505532    
   3689.000      0.8688594    
   3689.900      0.8521966    
   3690.800      0.8222899    
   3691.700      0.8206984    
   3692.600      0.8560110    
   3693.500      0.8930491    
   3694.400      0.9014800    
   3695.300      0.8702235    
   3696.200      0.8176216    
   3697.100      0.7882859    
   3698.000      0.8164174    
   3698.900      0.8851032    
   3699.800      0.9404739    
   3700.700      0.9466121    
   3701.600      0.8988258    
   3702.500      0.8197014    
   3703.400      0.7630118    
   3704.300      0.7585296    
   3705.200      0.8003538    
   3706.100      0.8789078    
   3707.000      0.9560592    
   3707.900      0.9807611    
   3708.800      0.9423004    
   3709.700      0.8631080    
   3710.600      0.7698742    
   3711.500      0.7037913    
   3712.400      0.7161146    
   3713.300      0.8080408    
   3714.200      0.9245834    
   3715.100       1.017688    
   3716.000       1.065591    
   3716.900       1.072608    
   3717.800       1.043751    
   3718.700      0.9665251    
   3719.600      0.8511650    
   3720.500      0.7315400    
   3721.400      0.6499030    
   3722.300      0.6550332    
   3723.200      0.7514542    
   3724.100      0.8808306    
   3725.000      0.9888585    
   3725.900       1.061490    
   3726.800       1.100489    
   3727.700       1.119997    
   3728.600       1.129844    
   3729.500       1.110350    
   3730.400       1.052462    
   3731.300      0.9624654    
   3732.200      0.8427786    
   3733.100      0.7132013    
   3734.000      0.6308500    
   3734.900      0.6357601    
   3735.800      0.7040069    
   3736.700      0.8098176    
   3737.600      0.9483044    
   3738.500       1.088622    
   3739.400       1.188421    
   3740.300       1.234739    
   3741.200       1.244009    
   3742.100       1.230519    
   3743.000       1.211964    
   3743.900       1.179366    
   3744.800       1.116546    
   3745.700       1.041076    
   3746.600      0.9670993    
   3747.500      0.8683771    
   3748.400      0.7357940    
   3749.300      0.6126750    
   3750.200      0.5768674    
   3751.100      0.6495404    
   3752.000      0.7782465    
   3752.900      0.9187444    
   3753.800       1.044578    
   3754.700       1.136272    
   3755.600       1.202162    
   3756.500       1.243825    
   3757.400       1.245097    
   3758.300       1.231921    
   3759.200       1.245015    
   3760.100       1.274216    
   3761.000       1.295583    
   3761.900       1.310496    
   3762.800       1.311301    
   3763.700       1.285814    
   3764.600       1.241612    
   3765.500       1.183734    
   3766.400       1.105507    
   3767.300       1.006370    
   3768.200      0.8813891    
   3769.100      0.7443430    
   3770.000      0.6409493    
   3770.900      0.6241606    
   3771.800      0.7038916    
   3772.700      0.8303794    
   3773.600      0.9556617    
   3774.500       1.065063    
   3775.400       1.158593    
   3776.300       1.241824    
   3777.200       1.312393    
   3778.100       1.368300    
   3779.000       1.417302    
   3779.900       1.463533    
   3780.800       1.501538    
   3781.700       1.520418    
   3782.600       1.524812    
   3783.500       1.529120    
   3784.400       1.534785    
   3785.300       1.532090    
   3786.200       1.511885    
   3787.100       1.472644    
   3788.000       1.433039    
   3788.900       1.403017    
   3789.800       1.371336    
   3790.700       1.324937    
   3791.600       1.262406    
   3792.500       1.191788    
   3793.400       1.106131    
   3794.300       1.001606    
   3795.200      0.8855708    
   3796.100      0.7573496    
   3797.000      0.6395992    
   3797.900      0.5910485    
   3798.800      0.6487581    
   3799.700      0.7797002    
   3800.600      0.9204949    
   3801.500       1.039858    
   3802.400       1.138284    
   3803.300       1.227229    
   3804.200       1.308584    
   3805.100       1.377890    
   3806.000       1.441457    
   3806.900       1.503213    
   3807.800       1.563302    
   3808.700       1.620404    
   3809.600       1.668683    
   3810.500       1.702711    
   3811.400       1.725409    
   3812.300       1.741228    
   3813.200       1.750333    
   3814.100       1.752954    
   3815.000       1.752542    
   3815.900       1.757882    
   3816.800       1.778069    
   3817.700       1.804454    
   3818.600       1.795181    
   3819.500       1.735641    
   3820.400       1.682643    
   3821.300       1.674849    
   3822.200       1.678427    
   3823.100       1.646649    
   3824.000       1.583986    
   3824.900       1.514244    
   3825.800       1.456008    
   3826.700       1.406358    
   3827.600       1.341051    
   3828.500       1.261284    
   3829.400       1.195607    
   3830.300       1.135729    
   3831.200       1.048895    
   3832.100      0.9367393    
   3833.000      0.8141648    
   3833.900      0.6896552    
   3834.800      0.5973551    
   3835.700      0.5884199    
   3836.600      0.6647372    
   3837.500      0.7770696    
   3838.400      0.8925116    
   3839.300       1.002378    
   3840.200       1.095588    
   3841.100       1.180913    
   3842.000       1.273688    
   3842.900       1.362698    
   3843.800       1.434614    
   3844.700       1.492446    
   3845.600       1.546000    
   3846.500       1.599816    
   3847.400       1.652804    
   3848.300       1.694106    
   3849.200       1.719833    
   3850.100       1.750820    
   3851.000       1.796708    
   3851.900       1.838544    
   3852.800       1.867631    
   3853.700       1.888593    
   3854.600       1.894461    
   3855.500       1.886194    
   3856.400       1.891645    
   3857.300       1.915140    
   3858.200       1.919545    
   3859.100       1.898980    
   3860.000       1.896598    
   3860.900       1.930849    
   3861.800       1.966323    
   3862.700       1.976650    
   3863.600       1.971614    
   3864.500       1.958668    
   3865.400       1.941555    
   3866.300       1.938860    
   3867.200       1.947161    
   3868.100       1.947962    
   3869.000       1.933836    
   3869.900       1.908862    
   3870.800       1.875710    
   3871.700       1.834323    
   3872.600       1.801907    
   3873.500       1.785910    
   3874.400       1.769389    
   3875.300       1.745067    
   3876.200       1.706448    
   3877.100       1.639475    
   3878.000       1.569037    
   3878.900       1.528342    
   3879.800       1.504225    
   3880.700       1.467186    
   3881.600       1.412283    
   3882.500       1.345975    
   3883.400       1.266753    
   3884.300       1.173408    
   3885.200       1.065349    
   3886.100      0.9465563    
   3887.000      0.8195038    
   3887.900      0.6916548    
   3888.800      0.6152745    
   3889.700      0.6452186    
   3890.600      0.7621753    
   3891.500      0.8978600    
   3892.400       1.017861    
   3893.300       1.123743    
   3894.200       1.208830    
   3895.100       1.278082    
   3896.000       1.344153    
   3896.900       1.404947    
   3897.800       1.451799    
   3898.700       1.478465    
   3899.600       1.498757    
   3900.500       1.541478    
   3901.400       1.601449    
   3902.300       1.650452    
   3903.200       1.684082    
   3904.100       1.711106    
   3905.000       1.734239    
   3905.900       1.763528    
   3906.800       1.810456    
   3907.700       1.859599    
   3908.600       1.884082    
   3909.500       1.890709    
   3910.400       1.907119    
   3911.300       1.921855    
   3912.200       1.912481    
   3913.100       1.898950    
   3914.000       1.907932    
   3914.900       1.932744    
   3915.800       1.953424    
   3916.700       1.965833    
   3917.600       1.968126    
   3918.500       1.960375    
   3919.400       1.954921    
   3920.300       1.959040    
   3921.200       1.970642    
   3922.100       1.982415    
   3923.000       1.986049    
   3923.900       1.993195    
   3924.800       2.007021    
   3925.700       2.011829    
   3926.600       2.004837    
   3927.500       1.994705    
   3928.400       1.985984    
   3929.300       1.977507    
   3930.200       1.965493    
   3931.100       1.897298    
   3932.000       1.686571    
   3932.900       1.409288    
   3933.800       1.325109    
   3934.700       1.531919    
   3935.600       1.828834    
   3936.500       2.012824    
   3937.400       2.074864    
   3938.300       2.093629    
   3939.200       2.106424    
   3940.100       2.114108    
   3941.000       2.104842    
   3941.900       2.078431    
   3942.800       2.044116    
   3943.700       2.012560    
   3944.600       2.008833    
   3945.500       2.027619    
   3946.400       2.034204    
   3947.300       2.016591    
   3948.200       1.991980    
   3949.100       1.973324    
   3950.000       1.957236    
   3950.900       1.936264    
   3951.800       1.913104    
   3952.700       1.889306    
   3953.600       1.865556    
   3954.500       1.837651    
   3955.400       1.800223    
   3956.300       1.752328    
   3957.200       1.706304    
   3958.100       1.668228    
   3959.000       1.622647    
   3959.900       1.562922    
   3960.800       1.496380    
   3961.700       1.436704    
   3962.600       1.389157    
   3963.500       1.335961    
   3964.400       1.265886    
   3965.300       1.176611    
   3966.200       1.055885    
   3967.100      0.8919047    
   3968.000      0.7134328    
   3968.900      0.5896751    
   3969.800      0.5631017    
   3970.700      0.6275628    
   3971.600      0.7508495    
   3972.500      0.8886825    
   3973.400       1.008637    
   3974.300       1.107606    
   3975.200       1.194604    
   3976.100       1.270155    
   3977.000       1.335344    
   3977.900       1.396814    
   3978.800       1.453931    
   3979.700       1.501666    
   3980.600       1.544484    
   3981.500       1.586977    
   3982.400       1.626274    
   3983.300       1.658901    
   3984.200       1.688606    
   3985.100       1.717127    
   3986.000       1.742745    
   3986.900       1.768618    
   3987.800       1.799150    
   3988.700       1.829534    
   3989.600       1.851431    
   3990.500       1.865715    
   3991.400       1.882590    
   3992.300       1.903515    
   3993.200       1.916814    
   3994.100       1.921819    
   3995.000       1.926583    
   3995.900       1.930672    
   3996.800       1.932775    
   3997.700       1.937913    
   3998.600       1.951228    
   3999.500       1.965195    
   4000.400       1.973885    
   4001.300       1.981419    
   4002.200       1.991411    
   4003.100       2.004539    
   4004.000       2.007763    
   4004.900       2.001557    
   4005.800       2.002843    
   4006.700       2.017269    
   4007.600       2.041334    
   4008.500       2.059690    
   4009.400       2.065370    
   4010.300       2.066639    
   4011.200       2.069155    
   4012.100       2.075595    
   4013.000       2.088130    
   4013.900       2.097685    
   4014.800       2.101449    
   4015.700       2.107130    
   4016.600       2.116006    
   4017.500       2.123852    
   4018.400       2.132842    
   4019.300       2.141394    
   4020.200       2.144157    
   4021.100       2.137829    
   4022.000       2.129868    
   4022.900       2.129791    
   4023.800       2.137551    
   4024.700       2.145870    
   4025.600       2.142611    
   4026.500       2.135766    
   4027.400       2.139940    
   4028.300       2.134896    
   4029.200       2.115478    
   4030.100       2.110507    
   4031.000       2.121866    
   4031.900       2.129887    
   4032.800       2.128430    
   4033.700       2.129221    
   4034.600       2.138831    
   4035.500       2.147992    
   4036.400       2.148338    
   4037.300       2.145661    
   4038.200       2.146369    
   4039.100       2.141337    
   4040.000       2.132855    
   4040.900       2.131254    
   4041.800       2.134103    
   4042.700       2.131866    
   4043.600       2.113900    
   4044.500       2.076104    
   4045.400       2.042881    
   4046.300       2.051151    
   4047.200       2.086823    
   4048.100       2.106246    
   4049.000       2.109309    
   4049.900       2.112363    
   4050.800       2.112678    
   4051.700       2.107856    
   4052.600       2.093172    
   4053.500       2.079916    
   4054.400       2.082446    
   4055.300       2.087573    
   4056.200       2.082770    
   4057.100       2.077235    
   4058.000       2.076427    
   4058.900       2.077239    
   4059.800       2.080926    
   4060.700       2.077285    
   4061.600       2.052586    
   4062.500       2.013051    
   4063.400       1.988381    
   4064.300       1.996373    
   4065.200       2.020686    
   4066.100       2.036053    
   4067.000       2.037349    
   4067.900       2.035990    
   4068.800       2.039401    
   4069.700       2.030880    
   4070.600       1.992969    
   4071.500       1.951106    
   4072.400       1.948023    
   4073.300       1.970542    
   4074.200       1.976338    
   4075.100       1.958156    
   4076.000       1.919502    
   4076.900       1.868720    
   4077.800       1.844023    
   4078.700       1.860102    
   4079.600       1.883256    
   4080.500       1.882428    
   4081.400       1.860810    
   4082.300       1.834192    
   4083.200       1.807459    
   4084.100       1.780659    
   4085.000       1.754847    
   4085.900       1.728882    
   4086.800       1.702301    
   4087.700       1.673310    
   4088.600       1.639361    
   4089.500       1.600051    
   4090.400       1.557204    
   4091.300       1.513387    
   4092.200       1.466121    
   4093.100       1.415898    
   4094.000       1.361886    
   4094.900       1.300565    
   4095.800       1.232291    
   4096.700       1.157162    
   4097.600       1.071240    
   4098.500      0.9736529    
   4099.400      0.8545011    
   4100.300      0.7202293    
   4101.200      0.6211240    
   4102.100      0.6187344    
   4103.000      0.7114422    
   4103.900      0.8426774    
   4104.800      0.9612538    
   4105.700       1.058738    
   4106.600       1.142959    
   4107.500       1.221081    
   4108.400       1.286556    
   4109.300       1.342798    
   4110.200       1.395591    
   4111.100       1.437762    
   4112.000       1.477938    
   4112.900       1.519474    
   4113.800       1.561814    
   4114.700       1.599078    
   4115.600       1.627612    
   4116.500       1.647919    
   4117.400       1.668117    
   4118.300       1.686365    
   4119.200       1.710802    
