   Wavelength    Flux
   3540.500      0.6847045    
   3541.400      0.6646169    
   3542.300      0.6973528    
   3543.200      0.7500026    
   3544.100      0.7420863    
   3545.000      0.7135093    
   3545.900      0.7296113    
   3546.800      0.7429335    
   3547.700      0.7454723    
   3548.600      0.7563635    
   3549.500      0.7796294    
   3550.400      0.7697110    
   3551.300      0.7453805    
   3552.200      0.7519146    
   3553.100      0.7484774    
   3554.000      0.6995347    
   3554.900      0.6744540    
   3555.800      0.7147887    
   3556.700      0.7492524    
   3557.600      0.7445787    
   3558.500      0.7252234    
   3559.400      0.7244534    
   3560.300      0.7360154    
   3561.200      0.7437495    
   3562.100      0.7708424    
   3563.000      0.7848040    
   3563.900      0.7126449    
   3564.800      0.6108816    
   3565.700      0.5624041    
   3566.600      0.5778715    
   3567.500      0.6089072    
   3568.400      0.5944830    
   3569.300      0.5384343    
   3570.200      0.5236052    
   3571.100      0.5498937    
   3572.000      0.5843012    
   3572.900      0.6223124    
   3573.800      0.6218141    
   3574.700      0.6110894    
   3575.600      0.6209494    
   3576.500      0.6670363    
   3577.400      0.6890122    
   3578.300      0.6535892    
   3579.200      0.6051576    
   3580.100      0.5437809    
   3581.000      0.5058680    
   3581.900      0.5449503    
   3582.800      0.6274936    
   3583.700      0.6401809    
   3584.600      0.5763407    
   3585.500      0.5220429    
   3586.400      0.5107557    
   3587.300      0.5697889    
   3588.200      0.6198758    
   3589.100      0.6399161    
   3590.000      0.7224303    
   3590.900      0.7873411    
   3591.800      0.7818947    
   3592.700      0.7353861    
   3593.600      0.7033609    
   3594.500      0.7326624    
   3595.400      0.7638857    
   3596.300      0.7655204    
   3597.200      0.7641282    
   3598.100      0.7600895    
   3599.000      0.7927232    
   3599.900      0.8412638    
   3600.800      0.8418812    
   3601.700      0.7440656    
   3602.600      0.6696451    
   3603.500      0.6553396    
   3604.400      0.6448657    
   3605.300      0.6343898    
   3606.200      0.6414547    
   3607.100      0.6437411    
   3608.000      0.5919585    
   3608.900      0.5514940    
   3609.800      0.5773617    
   3610.700      0.6538281    
   3611.600      0.6930153    
   3612.500      0.6355472    
   3613.400      0.5770379    
   3614.300      0.6017863    
   3615.200      0.6745852    
   3616.100      0.7038378    
   3617.000      0.6389317    
   3617.900      0.5180935    
   3618.800      0.4724596    
   3619.700      0.5413724    
   3620.600      0.6018693    
   3621.500      0.6294518    
   3622.400      0.6781284    
   3623.300      0.6983845    
   3624.200      0.6939360    
   3625.100      0.7612780    
   3626.000      0.8354950    
   3626.900      0.8598574    
   3627.800      0.8546310    
   3628.700      0.8153167    
   3629.600      0.7178407    
   3630.500      0.5933273    
   3631.400      0.5351526    
   3632.300      0.5851103    
   3633.200      0.6403204    
   3634.100      0.6445674    
   3635.000      0.6508432    
   3635.900      0.6443427    
   3636.800      0.6759794    
   3637.700      0.7452673    
   3638.600      0.7558040    
   3639.500      0.7556671    
   3640.400      0.7480158    
   3641.300      0.7317955    
   3642.200      0.7166798    
   3643.100      0.6740224    
   3644.000      0.6349505    
   3644.900      0.6234730    
   3645.800      0.6367705    
   3646.700      0.6281180    
   3647.600      0.6182486    
   3648.500      0.6401988    
   3649.400      0.6719132    
   3650.300      0.6839054    
   3651.200      0.7054020    
   3652.100      0.7417385    
   3653.000      0.7671490    
   3653.900      0.7678631    
   3654.800      0.7599340    
   3655.700      0.7538931    
   3656.600      0.7943804    
   3657.500      0.8321432    
   3658.400      0.8442835    
   3659.300      0.8295791    
   3660.200      0.8091713    
   3661.100      0.7877590    
   3662.000      0.7331657    
   3662.900      0.7298816    
   3663.800      0.7423277    
   3664.700      0.7695868    
   3665.600      0.7597916    
   3666.500      0.7517586    
   3667.400      0.7573842    
   3668.300      0.7548829    
   3669.200      0.7047926    
   3670.100      0.7099071    
   3671.000      0.7534782    
   3671.900      0.7999962    
   3672.800      0.8001395    
   3673.700      0.7743700    
   3674.600      0.7696639    
   3675.500      0.7882235    
   3676.400      0.7594666    
   3677.300      0.6859180    
   3678.200      0.6922449    
   3679.100      0.6949548    
   3680.000      0.6733390    
   3680.900      0.6880428    
   3681.800      0.7350374    
   3682.700      0.7352905    
   3683.600      0.7198410    
   3684.500      0.7208911    
   3685.400      0.6980363    
   3686.300      0.6651528    
   3687.200      0.6576530    
   3688.100      0.6606529    
   3689.000      0.6967459    
   3689.900      0.7526928    
   3690.800      0.7980150    
   3691.700      0.8131000    
   3692.600      0.7998186    
   3693.500      0.7702950    
   3694.400      0.7739829    
   3695.300      0.8041638    
   3696.200      0.8076285    
   3697.100      0.8031748    
   3698.000      0.8311071    
   3698.900      0.8751862    
   3699.800      0.8873203    
   3700.700      0.8542225    
   3701.600      0.8233044    
   3702.500      0.7905372    
   3703.400      0.7142101    
   3704.300      0.6339363    
   3705.200      0.5968449    
   3706.100      0.6107109    
   3707.000      0.6349558    
   3707.900      0.6559750    
   3708.800      0.6850962    
   3709.700      0.7191944    
   3710.600      0.7620044    
   3711.500      0.7985879    
   3712.400      0.8146588    
   3713.300      0.8699589    
   3714.200      0.9154459    
   3715.100      0.9055000    
   3716.000      0.8858043    
   3716.900      0.8709684    
   3717.800      0.8092337    
   3718.700      0.6980794    
   3719.600      0.5749019    
   3720.500      0.5148067    
   3721.400      0.5365707    
   3722.300      0.5875664    
   3723.200      0.6725163    
   3724.100      0.7686328    
   3725.000      0.8325866    
   3725.900      0.8189201    
   3726.800      0.7656847    
   3727.700      0.7538904    
   3728.600      0.7853847    
   3729.500      0.7851458    
   3730.400      0.7603627    
   3731.300      0.7556005    
   3732.200      0.6906808    
   3733.100      0.5700853    
   3734.000      0.4737605    
   3734.900      0.4535147    
   3735.800      0.4832861    
   3736.700      0.5232077    
   3737.600      0.6126202    
   3738.500      0.7220138    
   3739.400      0.7823944    
   3740.300      0.8290810    
   3741.200      0.8268660    
   3742.100      0.7773299    
   3743.000      0.7200698    
   3743.900      0.6719565    
   3744.800      0.6250790    
   3745.700      0.5994090    
   3746.600      0.5964662    
   3747.500      0.5823599    
   3748.400      0.5012779    
   3749.300      0.4444739    
   3750.200      0.5151572    
   3751.100      0.6401687    
   3752.000      0.7111693    
   3752.900      0.7518036    
   3753.800      0.8362871    
   3754.700      0.9014264    
   3755.600      0.9167525    
   3756.500      0.8428109    
   3757.400      0.7143841    
   3758.300      0.6402448    
   3759.200      0.6621810    
   3760.100      0.7172193    
   3761.000      0.7589298    
   3761.900      0.7779199    
   3762.800      0.7673199    
   3763.700      0.7803398    
   3764.600      0.8219501    
   3765.500      0.8171725    
   3766.400      0.7689903    
   3767.300      0.7502149    
   3768.200      0.7568688    
   3769.100      0.7255466    
   3770.000      0.6764132    
   3770.900      0.7130615    
   3771.800      0.8146957    
   3772.700      0.8712685    
   3773.600      0.8744931    
   3774.500      0.8654769    
   3775.400      0.8643125    
   3776.300      0.8821537    
   3777.200      0.9051087    
   3778.100      0.9090251    
   3779.000      0.9260813    
   3779.900      0.9482503    
   3780.800      0.9727695    
   3781.700      0.9676943    
   3782.600      0.9720797    
   3783.500      0.9962777    
   3784.400      0.9856941    
   3785.300      0.8980862    
   3786.200      0.8166684    
   3787.100      0.7952902    
   3788.000      0.8082000    
   3788.900      0.8033040    
   3789.800      0.7922095    
   3790.700      0.8225201    
   3791.600      0.8422129    
   3792.500      0.8071297    
   3793.400      0.7478456    
   3794.300      0.7046156    
   3795.200      0.7085711    
   3796.100      0.6881201    
   3797.000      0.6207765    
   3797.900      0.5708333    
   3798.800      0.6090533    
   3799.700      0.7058665    
   3800.600      0.8027605    
   3801.500      0.8393106    
   3802.400      0.8978800    
   3803.300      0.9483682    
   3804.200      0.9581767    
   3805.100      0.9255516    
   3806.000      0.8808351    
   3806.900      0.8491391    
   3807.800      0.8613858    
   3808.700      0.9304391    
   3809.600      0.9723432    
   3810.500      0.9831713    
   3811.400      0.9639773    
   3812.300      0.8792968    
   3813.200      0.8002595    
   3814.100      0.7428279    
   3815.000      0.7049623    
   3815.900      0.7113635    
   3816.800      0.7800500    
   3817.700      0.8499398    
   3818.600      0.8354615    
   3819.500      0.7171831    
   3820.400      0.6445958    
   3821.300      0.7103264    
   3822.200      0.8092700    
   3823.100      0.8094244    
   3824.000      0.7250518    
   3824.900      0.6353476    
   3825.800      0.5939970    
   3826.700      0.5930578    
   3827.600      0.5918607    
   3828.500      0.5829211    
   3829.400      0.5901073    
   3830.300      0.5984827    
   3831.200      0.5586663    
   3832.100      0.4941245    
   3833.000      0.4651655    
   3833.900      0.4726099    
   3834.800      0.4911316    
   3835.700      0.5188949    
   3836.600      0.5208003    
   3837.500      0.4823297    
   3838.400      0.4684605    
   3839.300      0.5054217    
   3840.200      0.5639085    
   3841.100      0.6540632    
   3842.000      0.7600480    
   3842.900      0.8271370    
   3843.800      0.8375695    
   3844.700      0.8438576    
   3845.600      0.8818414    
   3846.500      0.9134594    
   3847.400      0.9304572    
   3848.300      0.9178229    
   3849.200      0.8703626    
   3850.100      0.8414080    
   3851.000      0.8801520    
   3851.900      0.9308643    
   3852.800      0.9480265    
   3853.700      0.9241788    
   3854.600      0.8834960    
   3855.500      0.8582822    
   3856.400      0.8599092    
   3857.300      0.8555955    
   3858.200      0.7846135    
   3859.100      0.6864747    
   3860.000      0.6925972    
   3860.900      0.7733188    
   3861.800      0.8730615    
   3862.700      0.9528350    
   3863.600      0.9775087    
   3864.500      0.9465062    
   3865.400      0.9288243    
   3866.300      0.9323457    
   3867.200      0.9471663    
   3868.100      0.9510190    
   3869.000      0.9280757    
   3869.900      0.8811929    
   3870.800      0.8071225    
   3871.700      0.7295644    
   3872.600      0.7007246    
   3873.500      0.7707559    
   3874.400      0.8657668    
   3875.300      0.9028661    
   3876.200      0.8792275    
   3877.100      0.8140162    
   3878.000      0.7531222    
   3878.900      0.7661970    
   3879.800      0.8227168    
   3880.700      0.8579093    
   3881.600      0.8285471    
   3882.500      0.7827755    
   3883.400      0.7728830    
   3884.300      0.7701548    
   3885.200      0.7317471    
   3886.100      0.6710721    
   3887.000      0.6342322    
   3887.900      0.5985579    
   3888.800      0.5736963    
   3889.700      0.6166209    
   3890.600      0.7090411    
   3891.500      0.7903889    
   3892.400      0.8186736    
   3893.300      0.8216652    
   3894.200      0.8059694    
   3895.100      0.7944183    
   3896.000      0.8358076    
   3896.900      0.8786920    
   3897.800      0.8737382    
   3898.700      0.8496589    
   3899.600      0.8577570    
   3900.500      0.8899371    
   3901.400      0.8912595    
   3902.300      0.8543065    
   3903.200      0.8177148    
   3904.100      0.7883508    
   3905.000      0.7508335    
   3905.900      0.7531756    
   3906.800      0.8301523    
   3907.700      0.9096223    
   3908.600      0.9350461    
   3909.500      0.9336741    
   3910.400      0.9472938    
   3911.300      0.9834129    
   3912.200       1.002172    
   3913.100      0.9750613    
   3914.000      0.9499317    
   3914.900      0.9576623    
   3915.800      0.9445943    
   3916.700      0.9260670    
   3917.600      0.9194207    
   3918.500      0.9083952    
   3919.400      0.8578208    
   3920.300      0.7929862    
   3921.200      0.7763585    
   3922.100      0.8043622    
   3923.000      0.8419128    
   3923.900      0.8575752    
   3924.800      0.8247670    
   3925.700      0.7570770    
   3926.600      0.6851897    
   3927.500      0.5942069    
   3928.400      0.5029237    
   3929.300      0.4264943    
   3930.200      0.3651922    
   3931.100      0.3119755    
   3932.000      0.2476686    
   3932.900      0.1904528    
   3933.800      0.1789635    
   3934.700      0.2124475    
   3935.600      0.2702225    
   3936.500      0.3477577    
   3937.400      0.4344459    
   3938.300      0.5232515    
   3939.200      0.6169540    
   3940.100      0.6833851    
   3941.000      0.7137920    
   3941.900      0.7253818    
   3942.800      0.7132161    
   3943.700      0.6970376    
   3944.600      0.7406135    
   3945.500      0.8325857    
   3946.400      0.8863707    
   3947.300      0.8668625    
   3948.200      0.8493538    
   3949.100      0.8841220    
   3950.000      0.9334366    
   3950.900      0.9451571    
   3951.800      0.9113579    
   3952.700      0.8877141    
   3953.600      0.9170374    
   3954.500      0.9527509    
   3955.400      0.9343942    
   3956.300      0.8802613    
   3957.200      0.8703929    
   3958.100      0.9127859    
   3959.000      0.9319015    
   3959.900      0.8776481    
   3960.800      0.7562959    
   3961.700      0.6522132    
   3962.600      0.6192169    
   3963.500      0.6117471    
   3964.400      0.5660210    
   3965.300      0.4779305    
   3966.200      0.3772331    
   3967.100      0.2771497    
   3968.000      0.2083610    
   3968.900      0.2058602    
   3969.800      0.2662874    
   3970.700      0.3545952    
   3971.600      0.4466029    
   3972.500      0.5324576    
   3973.400      0.6098018    
   3974.300      0.6814960    
   3975.200      0.7438900    
   3976.100      0.7897936    
   3977.000      0.8286350    
   3977.900      0.8833903    
   3978.800      0.9364184    
   3979.700      0.9697747    
   3980.600      0.9741349    
   3981.500      0.9424547    
   3982.400      0.9220322    
   3983.300      0.9482911    
   3984.200      0.9741730    
   3985.100      0.9749188    
   3986.000      0.9704517    
   3986.900      0.9747890    
   3987.800      0.9925556    
   3988.700       1.006751    
   3989.600       1.017455    
   3990.500       1.035976    
   3991.400       1.044700    
   3992.300       1.059114    
   3993.200       1.073666    
   3994.100       1.051585    
   3995.000       1.011807    
   3995.900      0.9801697    
   3996.800      0.9541886    
   3997.700      0.9463707    
   3998.600      0.9803280    
   3999.500       1.033736    
   4000.400       1.054807    
   4001.300       1.055064    
   4002.200       1.072457    
   4003.100       1.085061    
   4004.000       1.037784    
   4004.900      0.9457895    
   4005.800      0.9138980    
   4006.700      0.9595982    
   4007.600       1.027731    
   4008.500       1.067854    
   4009.400       1.079375    
   4010.300       1.081587    
   4011.200       1.092193    
   4012.100       1.088531    
   4013.000       1.081266    
   4013.900       1.074990    
   4014.800       1.081838    
   4015.700       1.076225    
   4016.600       1.042400    
   4017.500       1.020784    
   4018.400       1.054597    
   4019.300       1.093278    
   4020.200       1.080938    
   4021.100       1.066929    
   4022.000       1.084034    
   4022.900       1.096948    
   4023.800       1.081511    
   4024.700       1.071951    
   4025.600       1.093967    
   4026.500       1.112111    
   4027.400       1.131567    
   4028.300       1.140836    
   4029.200       1.088291    
   4030.100       1.013739    
   4031.000      0.9787661    
   4031.900      0.9775001    
   4032.800      0.9754575    
   4033.700      0.9770073    
   4034.600       1.006126    
   4035.500       1.063181    
   4036.400       1.121450    
   4037.300       1.152585    
   4038.200       1.154575    
   4039.100       1.134224    
   4040.000       1.104112    
   4040.900       1.091228    
   4041.800       1.115718    
   4042.700       1.129352    
   4043.600       1.056340    
   4044.500      0.9291787    
   4045.400      0.8450198    
   4046.300      0.8893107    
   4047.200       1.009924    
   4048.100       1.078470    
   4049.000       1.095822    
   4049.900       1.129674    
   4050.800       1.148886    
   4051.700       1.113830    
   4052.600       1.078285    
   4053.500       1.062715    
   4054.400       1.050158    
   4055.300       1.045658    
   4056.200       1.036000    
   4057.100       1.010854    
   4058.000       1.002206    
   4058.900       1.038995    
   4059.800       1.092458    
   4060.700       1.122182    
   4061.600       1.088920    
   4062.500      0.9930936    
   4063.400      0.9274985    
   4064.300      0.9605330    
   4065.200       1.019945    
   4066.100       1.036300    
   4067.000       1.044825    
   4067.900       1.078849    
   4068.800       1.123530    
   4069.700       1.116908    
   4070.600       1.034865    
   4071.500      0.9694492    
   4072.400       1.005675    
   4073.300       1.074422    
   4074.200       1.094069    
   4075.100       1.057331    
   4076.000       1.004069    
   4076.900      0.9526052    
   4077.800      0.9378086    
   4078.700      0.9679270    
   4079.600       1.008208    
   4080.500       1.046315    
   4081.400       1.069757    
   4082.300       1.059022    
   4083.200       1.031055    
   4084.100       1.013686    
   4085.000       1.036039    
   4085.900       1.071423    
   4086.800       1.106443    
   4087.700       1.152148    
   4088.600       1.183170    
   4089.500       1.169576    
   4090.400       1.139992    
   4091.300       1.116842    
   4092.200       1.104819    
   4093.100       1.118373    
   4094.000       1.112961    
   4094.900       1.075227    
   4095.800       1.036911    
   4096.700       1.024979    
   4097.600       1.008462    
   4098.500      0.9695662    
   4099.400      0.9075323    
   4100.300      0.7954009    
   4101.200      0.6860836    
   4102.100      0.6938158    
   4103.000      0.7979037    
   4103.900      0.9028923    
   4104.800      0.9738022    
   4105.700       1.017727    
   4106.600       1.048192    
   4107.500       1.060295    
   4108.400       1.069773    
   4109.300       1.070419    
   4110.200       1.063125    
   4111.100       1.067870    
   4112.000       1.085535    
   4112.900       1.102933    
   4113.800       1.119063    
   4114.700       1.129963    
   4115.600       1.146368    
   4116.500       1.155345    
   4117.400       1.136407    
   4118.300       1.094121    
   4119.200       1.080915    
